File: sample/000_2_2.txt
/////////////////////////////////////////////////////////////////////////////////
/// Profile Data Ascii Dump (XRD)                                             ///
/////////////////////////////////////////////////////////////////////////////////

  Group     : Standard
  Data      : 000_2_2
  File Name : 000_2_2.RAW

# Profile Datafile
          comment             =
          date & time         = 25-07-30 14:24:01

# Measurement Condition
    X-ray tube
          target              = Cu
          voltage             = 40.0 (kV)
          current             = 30.0 (mA)
    Slits
          divergence slit     = 1.00000 (deg)
          scatter slit        = 1.00000 (deg)
          receiving slit      = 0.30000 (mm)
    Scanning
          drive axis          = Theta-2Theta
          scan range          =   10.000 -   70.000
          scan mode           = Continuous Scan
          scan speed          =   3.0000 (deg/min)
          sampling pitch      =   0.0200 (deg)
          preset time         =   0.40 (sec)

# Data      [ Total No. = 3001 ]
  <2Theta>   <   I   >
    10.0000       492
    10.2200       458
    10.4400       462
    10.6600       416
    10.8800       426
    11.1000       436
    11.3200       398
    11.5400       434
    11.7600       426
    11.9800       418
    12.2000       376
    12.4200       398
    12.6400       378
    12.8600       374
    13.0800       404
    13.3000       448
    13.5200       396
    13.7400       418
    13.9600       400
    14.1800       450
    14.4000       434
    14.6200       426
    14.8400       448
    15.0600       448
    15.2800       442
    15.5000       430
    15.7200       434
    15.9400       462
    16.1600       432
    16.3800       442
    16.6000       468
    16.8200       428
    17.0400       480
    17.2600       470
    17.4800       436
    17.7000       482
    17.9200       480
    18.1400       540
    18.3600       540
    18.5800       478
    18.8000       528
    19.0200       518
    19.2400       502
    19.4600       536
    19.6800       530
    19.9000       566
    20.1200       574
    20.3400       580
    20.5600       564
    20.7800       548
    21.0000       534
    21.2200       600
    21.4400       566
    21.6600       614
    21.8800       628
    22.1000       578
    22.3200       614
    22.5400       608
    22.7600       614
    22.9800       590
    23.2000       648
    23.4200       676
    23.6400       644
    23.8600       654
    24.0800       668
    24.3000       648
    24.5200       692
    24.7400       668
    24.9600       704
    25.1800       678
    25.4000       644
    25.6200       622
    25.8400       688
    26.0600       646
    26.2800       644
    26.5000       692
    26.7200       672
    26.9400       658
    27.1600       710
    27.3800       662
    27.6000       658
    27.8200       646
    28.0400       688
    28.2600       756
    28.4800      1066
    28.7000      1156
    28.9200       792
    29.1400       790
    29.3600       778
    29.5800       728
    29.8000       714
    30.0200       682
    30.2400       664
    30.4600       680
    30.6800       700
    30.9000       694
    31.1200       708
    31.3400       666
    31.5600       716
    31.7800       692
    32.0000       682
    32.2200       698
    32.4400       672
    32.6600       608
    32.8800       724
    33.1000       692
    33.3200       652
    33.5400       676
    33.7600       700
    33.9800       662
    34.2000       682
    34.4200       638
    34.6400       754
    34.8600       686
    35.0800       672
    35.3000       694
    35.5200       696
    35.7400       718
    35.9600       688
    36.1800       704
    36.4000       742
    36.6200       658
    36.8400       658
    37.0600       694
    37.2800       970
    37.5000       800
    37.7200       676
    37.9400       742
    38.1600       694
    38.3800       712
    38.6000       716
    38.8200       704
    39.0400       690
    39.2600       686
    39.4800       740
    39.7000       644
    39.9200       738
    40.1400       720
    40.3600       696
    40.5800       768
    40.8000       782
    41.0200       814
    41.2400       734
    41.4600       734
    41.6800       786
    41.9000       710
    42.1200       712
    42.3400       690
    42.5600       714
    42.7800       842
    43.0000       762
    43.2200       742
    43.4400       694
    43.6600       746
    43.8800       706
    44.1000       768
    44.3200       754
    44.5400       758
    44.7600       744
    44.9800       704
    45.2000       718
    45.4200       754
    45.6400       764
    45.8600       768
    46.0800       758
    46.3000       822
    46.5200       760
    46.7400       770
    46.9600       752
    47.1800       818
    47.4000       788
    47.6200       730
    47.8400       794
    48.0600       790
    48.2800       776
    48.5000       818
    48.7200       740
    48.9400       802
    49.1600       718
    49.3800       744
    49.6000       788
    49.8200       772
    50.0400       756
    50.2600       802
    50.4800       728
    50.7000       764
    50.9200       740
    51.1400       818
    51.3600       802
    51.5800       804
    51.8000       778
    52.0200       752
    52.2400       760
    52.4600       804
    52.6800       804
    52.9000       806
    53.1200       822
    53.3400       800
    53.5600       780
    53.7800       792
    54.0000       776
    54.2200       776
    54.4400       866
    54.6600       844
    54.8800       822
    55.1000       862
    55.3200       804
    55.5400       808
    55.7600       852
    55.9800       786
    56.2000       866
    56.4200      1028
    56.6400      1130
    56.8600      1000
    57.0800       914
    57.3000       834
    57.5200       816
    57.7400       860
    57.9600       804
    58.1800       856
    58.4000       830
    58.6200       830
    58.8400       842
    59.0600       870
    59.2800       930
    59.5000       856
    59.7200       834
    59.9400       826
    60.1600       820
    60.3800       802
    60.6000       812
    60.8200       822
    61.0400       822
    61.2600       784
    61.4800       798
    61.7000       812
    61.9200       790
    62.1400       774
    62.3600       778
    62.5800       804
    62.8000       762
    63.0200       838
    63.2400       838
    63.4600       868
    63.6800       808
    63.9000       804
    64.1200       848
    64.3400       836
    64.5600       868
    64.7800       804
    65.0000       882
    65.2200       838
    65.4400       836
    65.6600       846
    65.8800       808
    66.1000       806
    66.3200       828
    66.5400       758
    66.7600       840
    66.9800       830
    67.2000       800
    67.4200       864
    67.6400       830
    67.8600       862
    68.0800       802
    68.3000       852
    68.5200       844
    68.7400       848
    68.9600       794
    69.1800       798
    69.4000       802
    69.6200       848
    69.8400       798
    70.0000       792