File: sample/20251203 nmo.txt
/////////////////////////////////////////////////////////////////////////////////
/// Profile Data Ascii Dump (XRD)                                             ///
/////////////////////////////////////////////////////////////////////////////////

  Group     : Standard
  Data      : nmo
  File Name : nmo.RAW

# Profile Datafile
          comment             =
          date & time         = 25-12-03 13:18:58

# Measurement Condition
    X-ray tube
          target              = Cu
          voltage             = 40.0 (kV)
          current             = 30.0 (mA)
    Slits
          divergence slit     = 1.00000 (deg)
          scatter slit        = 1.00000 (deg)
          receiving slit      = 0.30000 (mm)
    Scanning
          drive axis          = Theta-2Theta
          scan range          =   10.000 -   70.000
          scan mode           = Continuous Scan
          scan speed          =   3.0000 (deg/min)
          sampling pitch      =   0.0200 (deg)
          preset time         =   0.40 (sec)

# Data      [ Total No. = 3001 ]
  <2Theta>   <   I   >
    10.0000       466
    10.2200       498
    10.4400       420
    10.6600       450
    10.8800       430
    11.1000       448
    11.3200       442
    11.5400       458
    11.7600       470
    11.9800       488
    12.2000       526
    12.4200       546
    12.6400       568
    12.8600       486
    13.0800       478
    13.3000       476
    13.5200       480
    13.7400       442
    13.9600       460
    14.1800       418
    14.4000       450
    14.6200       406
    14.8400       438
    15.0600       434
    15.2800       452
    15.5000       474
    15.7200       460
    15.9400       428
    16.1600       516
    16.3800       456
    16.6000       418
    16.8200       412
    17.0400       458
    17.2600       480
    17.4800       472
    17.7000       466
    17.9200       490
    18.1400       460
    18.3600       466
    18.5800       500
    18.8000       520
    19.0200       498
    19.2400       510
    19.4600       548
    19.6800       488
    19.9000       496
    20.1200       520
    20.3400       526
    20.5600       558
    20.7800       512
    21.0000       532
    21.2200       538
    21.4400       532
    21.6600       572
    21.8800       568
    22.1000       552
    22.3200       526
    22.5400       548
    22.7600       580
    22.9800       506
    23.2000       596
    23.4200       570
    23.6400       590
    23.8600       590
    24.0800       586
    24.3000       578
    24.5200       562
    24.7400       612
    24.9600       618
    25.1800       610
    25.4000       572
    25.6200       594
    25.8400       618
    26.0600       542
    26.2800       570
    26.5000       570
    26.7200       580
    26.9400       558
    27.1600       538
    27.3800       560
    27.6000       568
    27.8200       596
    28.0400       560
    28.2600       582
    28.4800       578
    28.7000       566
    28.9200       556
    29.1400       572
    29.3600       572
    29.5800       540
    29.8000       588
    30.0200       522
    30.2400       582
    30.4600       606
    30.6800       588
    30.9000       538
    31.1200       544
    31.3400       562
    31.5600       564
    31.7800       546
    32.0000       548
    32.2200       580
    32.4400       558
    32.6600       548
    32.8800       522
    33.1000       526
    33.3200       508
    33.5400       538
    33.7600       532
    33.9800       544
    34.2000       542
    34.4200       532
    34.6400       544
    34.8600       512
    35.0800       572
    35.3000       446
    35.5200       424
    35.7400       518
    35.9600       484
    36.1800       502
    36.4000       530
    36.6200       556
    36.8400       574
    37.0600       576
    37.2800       562
    37.5000       554
    37.7200       512
    37.9400       538
    38.1600       540
    38.3800       544
    38.6000       572
    38.8200       536
    39.0400       502
    39.2600       568
    39.4800       512
    39.7000       518
    39.9200       536
    40.1400       556
    40.3600       498
    40.5800       512
    40.8000       530
    41.0200       528
    41.2400       508
    41.4600       486
    41.6800       498
    41.9000       492
    42.1200       496
    42.3400       496
    42.5600       460
    42.7800       536
    43.0000       506
    43.2200       504
    43.4400       522
    43.6600       464
    43.8800       470
    44.1000       496
    44.3200       464
    44.5400       506
    44.7600       500
    44.9800       512
    45.2000       498
    45.4200       460
    45.6400       496
    45.8600       486
    46.0800       502
    46.3000       498
    46.5200       478
    46.7400       488
    46.9600       514
    47.1800       500
    47.4000       512
    47.6200       476
    47.8400       498
    48.0600       524
    48.2800       478
    48.5000       468
    48.7200       482
    48.9400       442
    49.1600       474
    49.3800       454
    49.6000       480
    49.8200       498
    50.0400       472
    50.2600       484
    50.4800       490
    50.7000       458
    50.9200       470
    51.1400       540
    51.3600       456
    51.5800       498
    51.8000       458
    52.0200       476
    52.2400       494
    52.4600       468
    52.6800       480
    52.9000       502
    53.1200       430
    53.3400       444
    53.5600       458
    53.7800       456
    54.0000       448
    54.2200       450
    54.4400       494
    54.6600       492
    54.8800       454
    55.1000       466
    55.3200       448
    55.5400       474
    55.7600       458
    55.9800       480
    56.2000       468
    56.4200       456
    56.6400       430
    56.8600       448
    57.0800       462
    57.3000       480
    57.5200       442
    57.7400       470
    57.9600       454
    58.1800       472
    58.4000       450
    58.6200       414
    58.8400       456
    59.0600       454
    59.2800       468
    59.5000       460
    59.7200       460
    59.9400       426
    60.1600       444
    60.3800       444
    60.6000       426
    60.8200       462
    61.0400       430
    61.2600       456
    61.4800       474
    61.7000       498
    61.9200       476
    62.1400       490
    62.3600       434
    62.5800       430
    62.8000       478
    63.0200       420
    63.2400       414
    63.4600       470
    63.6800       448
    63.9000       456
    64.1200       448
    64.3400       406
    64.5600       412
    64.7800       426
    65.0000       424
    65.2200       446
    65.4400       430
    65.6600       494
    65.8800       460
    66.1000       490
    66.3200       438
    66.5400       436
    66.7600       440
    66.9800       470
    67.2000       454
    67.4200       426
    67.6400       446
    67.8600       438
    68.0800       422
    68.3000       428
    68.5200       380
    68.7400       434
    68.9600       422
    69.1800       424
    69.4000       424
    69.6200       442
    69.8400       426
    70.0000       424